TITLE	An Np solution
DATA TYPE	ULTRAVIOLET SPECTRUM
ORIGIN	JASCO
OWNER	By Zero!
DATE	20/05/20
TIME	10:44:53
SPECTROMETER/DATA SYSTEM	
RESOLUTION	
DELTAX	-1
XUNITS	NANOMETERS
YUNITS	ABSORBANCE
FIRSTX	  900.0000
LASTX	  350.0000
NPOINTS	     551
FIRSTY	     0.01180
MAXY	     1.05092
MINY	     0.01046
XYDATA
lam(nm)		abs
900.0000	0.0117959
899.0000	0.0106889
898.0000	0.0106591
897.0000	0.0109067
896.0000	0.0104602
895.0000	0.0115902
894.0000	0.0128968
893.0000	0.0129997
892.0000	0.0137262
891.0000	0.0129203
890.0000	0.0122975
889.0000	0.011645
888.0000	0.0112993
887.0000	0.0116947
886.0000	0.0122379
885.0000	0.0126554
884.0000	0.0116967
883.0000	0.0114733
882.0000	0.0112307
881.0000	0.0118309
880.0000	0.0117222
879.0000	0.0116366
878.0000	0.0113359
877.0000	0.0116933
876.0000	0.0116121
875.0000	0.0116117
874.0000	0.0119332
873.0000	0.0118719
872.0000	0.0119688
871.0000	0.0117768
870.0000	0.0120701
869.0000	0.0120586
868.0000	0.0122149
867.0000	0.0120504
866.0000	0.0122176
865.0000	0.0122312
864.0000	0.0119945
863.0000	0.0118783
862.0000	0.0118441
861.0000	0.0120666
860.0000	0.0121391
859.0000	0.0120739
858.0000	0.0123098
857.0000	0.0125003
856.0000	0.0125339
855.0000	0.0125487
854.0000	0.012445
853.0000	0.0126493
852.0000	0.0126296
851.0000	0.0126959
850.0000	0.0127311
849.0000	0.0127729
848.0000	0.0128281
847.0000	0.0129151
846.0000	0.0128212
845.0000	0.0130441
844.0000	0.0131959
843.0000	0.0133302
842.0000	0.013262
841.0000	0.0133886
840.0000	0.0135719
839.0000	0.013845
838.0000	0.0139162
837.0000	0.0139166
836.0000	0.0139311
835.0000	0.0140499
834.0000	0.0139008
833.0000	0.0138284
832.0000	0.0138106
831.0000	0.0139388
830.0000	0.0140228
829.0000	0.0141986
828.0000	0.0141158
827.0000	0.0142842
826.0000	0.0143566
825.0000	0.0145168
824.0000	0.0144947
823.0000	0.0144839
822.0000	0.0143885
821.0000	0.0143814
820.0000	0.0145782
819.0000	0.0147499
818.0000	0.0149063
817.0000	0.0149793
816.0000	0.0149918
815.0000	0.0150783
814.0000	0.0152369
813.0000	0.0152782
812.0000	0.015406
811.0000	0.0154665
810.0000	0.015489
809.0000	0.0155434
808.0000	0.0156674
807.0000	0.0157928
806.0000	0.01582
805.0000	0.0158529
804.0000	0.0159196
803.0000	0.0160619
802.0000	0.0162203
801.0000	0.0164975
800.0000	0.0165663
799.0000	0.016632
798.0000	0.0167184
797.0000	0.0169068
796.0000	0.0169159
795.0000	0.016964
794.0000	0.0170356
793.0000	0.0172437
792.0000	0.01736
791.0000	0.0175285
790.0000	0.0175788
789.0000	0.0176459
788.0000	0.0175759
787.0000	0.0177168
786.0000	0.0180222
785.0000	0.018211
784.0000	0.0184473
783.0000	0.0185222
782.0000	0.0184867
781.0000	0.0185897
780.0000	0.0186948
779.0000	0.0188773
778.0000	0.0189907
777.0000	0.0191438
776.0000	0.0193411
775.0000	0.0194515
774.0000	0.0196188
773.0000	0.0197399
772.0000	0.0198125
771.0000	0.0200409
770.0000	0.0201388
769.0000	0.0203749
768.0000	0.0205091
767.0000	0.0206844
766.0000	0.0208183
765.0000	0.0209837
764.0000	0.0211738
763.0000	0.0212961
762.0000	0.0214801
761.0000	0.0217082
760.0000	0.0218658
759.0000	0.0220291
758.0000	0.0221794
757.0000	0.0224059
756.0000	0.0225565
755.0000	0.0227411
754.0000	0.0228488
753.0000	0.0229735
752.0000	0.0231395
751.0000	0.0233275
750.0000	0.0236386
749.0000	0.0238535
748.0000	0.0240597
747.0000	0.0242708
746.0000	0.0244987
745.0000	0.0247469
744.0000	0.0249104
743.0000	0.0250889
742.0000	0.0251811
741.0000	0.0254357
740.0000	0.0257179
739.0000	0.0260111
738.0000	0.0261939
737.0000	0.0264606
736.0000	0.0266653
735.0000	0.0268579
734.0000	0.0269915
733.0000	0.0272037
732.0000	0.0274178
731.0000	0.0277259
730.0000	0.0278863
729.0000	0.0280506
728.0000	0.0282575
727.0000	0.028604
726.0000	0.0288265
725.0000	0.0290792
724.0000	0.0293059
723.0000	0.029658
722.0000	0.0300464
721.0000	0.0303407
720.0000	0.0306186
719.0000	0.0308461
718.0000	0.0311117
717.0000	0.0313822
716.0000	0.0316502
715.0000	0.032001
714.0000	0.0323279
713.0000	0.0326641
712.0000	0.0330113
711.0000	0.033269
710.0000	0.033575
709.0000	0.0339342
708.0000	0.0343429
707.0000	0.034739
706.0000	0.0350165
705.0000	0.035348
704.0000	0.0357257
703.0000	0.0361385
702.0000	0.0365659
701.0000	0.0369688
700.0000	0.0374136
699.0000	0.0378175
698.0000	0.0382416
697.0000	0.0386551
696.0000	0.0390938
695.0000	0.0395494
694.0000	0.0400354
693.0000	0.0405111
692.0000	0.0409896
691.0000	0.0415296
690.0000	0.0420332
689.0000	0.0425721
688.0000	0.043118
687.0000	0.0437006
686.0000	0.0442769
685.0000	0.0448011
684.0000	0.0453677
683.0000	0.045934
682.0000	0.0466268
681.0000	0.0472802
680.0000	0.047886
679.0000	0.0485363
678.0000	0.0491593
677.0000	0.0498542
676.0000	0.0504923
675.0000	0.0512094
674.0000	0.051916
673.0000	0.0526912
672.0000	0.0534017
671.0000	0.0542184
670.0000	0.0550424
669.0000	0.0559008
668.0000	0.0567288
667.0000	0.0575409
666.0000	0.0584658
665.0000	0.0593487
664.0000	0.0602931
663.0000	0.0612102
662.0000	0.0621584
661.0000	0.0632465
660.0000	0.0642602
659.0000	0.0653138
658.0000	0.0663101
657.0000	0.0674259
656.0000	0.0685219
655.0000	0.0697207
654.0000	0.0709563
653.0000	0.0721855
652.0000	0.0734731
651.0000	0.0747489
650.0000	0.0760891
649.0000	0.0774713
648.0000	0.0788984
647.0000	0.0803754
646.0000	0.0818408
645.0000	0.0833243
644.0000	0.0848594
643.0000	0.0864599
642.0000	0.0881099
641.0000	0.0898317
640.0000	0.0915949
639.0000	0.0934135
638.0000	0.0952295
637.0000	0.0971284
636.0000	0.0990736
635.0000	0.101087
634.0000	0.103109
633.0000	0.105181
632.0000	0.10734
631.0000	0.109586
630.0000	0.111916
629.0000	0.114339
628.0000	0.116798
627.0000	0.119327
626.0000	0.121842
625.0000	0.124553
624.0000	0.127359
623.0000	0.130235
622.0000	0.133192
621.0000	0.136198
620.0000	0.139344
619.0000	0.14257
618.0000	0.145896
617.0000	0.149322
616.0000	0.15281
615.0000	0.156477
614.0000	0.16028
613.0000	0.164273
612.0000	0.168439
611.0000	0.172653
610.0000	0.177
609.0000	0.181483
608.0000	0.186092
607.0000	0.190891
606.0000	0.195874
605.0000	0.201008
604.0000	0.20632
603.0000	0.211832
602.0000	0.217514
601.0000	0.223466
600.0000	0.229479
599.0000	0.235952
598.0000	0.242503
597.0000	0.249233
596.0000	0.256144
595.0000	0.263247
594.0000	0.27072
593.0000	0.278436
592.0000	0.286439
591.0000	0.294598
590.0000	0.302978
589.0000	0.311594
588.0000	0.320528
587.0000	0.329828
586.0000	0.339445
585.0000	0.34934
584.0000	0.359487
583.0000	0.369932
582.0000	0.380696
581.0000	0.391778
580.0000	0.403208
579.0000	0.414963
578.0000	0.427009
577.0000	0.439251
576.0000	0.451728
575.0000	0.464495
574.0000	0.477613
573.0000	0.491269
572.0000	0.505295
571.0000	0.519681
570.0000	0.534229
569.0000	0.54907
568.0000	0.564109
567.0000	0.57949
566.0000	0.595016
565.0000	0.610872
564.0000	0.626804
563.0000	0.643048
562.0000	0.659352
561.0000	0.675878
560.0000	0.692479
559.0000	0.709176
558.0000	0.72594
557.0000	0.742694
556.0000	0.759501
555.0000	0.776206
554.0000	0.792872
553.0000	0.809249
552.0000	0.825401
551.0000	0.841367
550.0000	0.857112
549.0000	0.872446
548.0000	0.887295
547.0000	0.901765
546.0000	0.915732
545.0000	0.929354
544.0000	0.94239
543.0000	0.954773
542.0000	0.966579
541.0000	0.977798
540.0000	0.988212
539.0000	0.997918
538.0000	1.00684
537.0000	1.01491
536.0000	1.02226
535.0000	1.02874
534.0000	1.03443
533.0000	1.03937
532.0000	1.04339
531.0000	1.04649
530.0000	1.04879
529.0000	1.0503
528.0000	1.05092
527.0000	1.05048
526.0000	1.04926
525.0000	1.04705
524.0000	1.04412
523.0000	1.04032
522.0000	1.03559
521.0000	1.02996
520.0000	1.02344
519.0000	1.01644
518.0000	1.00847
517.0000	0.99992
516.0000	0.99075
515.0000	0.981004
514.0000	0.970571
513.0000	0.95955
512.0000	0.94805
511.0000	0.936157
510.0000	0.923836
509.0000	0.911203
508.0000	0.898236
507.0000	0.88514
506.0000	0.871929
505.0000	0.858625
504.0000	0.845383
503.0000	0.832126
502.0000	0.81897
501.0000	0.806032
500.0000	0.793275
499.0000	0.780797
498.0000	0.768607
497.0000	0.756715
496.0000	0.745272
495.0000	0.734149
494.0000	0.723474
493.0000	0.713115
492.0000	0.703142
491.0000	0.693672
490.0000	0.684536
489.0000	0.675858
488.0000	0.667522
487.0000	0.659728
486.0000	0.652365
485.0000	0.645384
484.0000	0.638804
483.0000	0.632541
482.0000	0.626685
481.0000	0.621074
480.0000	0.615859
479.0000	0.610938
478.0000	0.606388
477.0000	0.602005
476.0000	0.597978
475.0000	0.594174
474.0000	0.590574
473.0000	0.587288
472.0000	0.58419
471.0000	0.581261
470.0000	0.57842
469.0000	0.575879
468.0000	0.573424
467.0000	0.571258
466.0000	0.569145
465.0000	0.567234
464.0000	0.565431
463.0000	0.563756
462.0000	0.562203
461.0000	0.560685
460.0000	0.559346
459.0000	0.558082
458.0000	0.556953
457.0000	0.555881
456.0000	0.554956
455.0000	0.554093
454.0000	0.55333
453.0000	0.55254
452.0000	0.551856
451.0000	0.551237
450.0000	0.550803
449.0000	0.55042
448.0000	0.550038
447.0000	0.549721
446.0000	0.549451
445.0000	0.54925
444.0000	0.549091
443.0000	0.549043
442.0000	0.549076
441.0000	0.549081
440.0000	0.549153
439.0000	0.549194
438.0000	0.549303
437.0000	0.549458
436.0000	0.549713
435.0000	0.5501
434.0000	0.550397
433.0000	0.550698
432.0000	0.550975
431.0000	0.55129
430.0000	0.551717
429.0000	0.552079
428.0000	0.552534
427.0000	0.553061
426.0000	0.553654
425.0000	0.554289
424.0000	0.554893
423.0000	0.555524
422.0000	0.556254
421.0000	0.556948
420.0000	0.557671
419.0000	0.558414
418.0000	0.559102
417.0000	0.559887
416.0000	0.560506
415.0000	0.56136
414.0000	0.562307
413.0000	0.56337
412.0000	0.564399
411.0000	0.565296
410.0000	0.566268
409.0000	0.567478
408.0000	0.568703
407.0000	0.56989
406.0000	0.570847
405.0000	0.572004
404.0000	0.573303
403.0000	0.574541
402.0000	0.575902
401.0000	0.577067
400.0000	0.578472
399.0000	0.579815
398.0000	0.581178
397.0000	0.582482
396.0000	0.583885
395.0000	0.585447
394.0000	0.586976
393.0000	0.588327
392.0000	0.589643
391.0000	0.591025
390.0000	0.592537
389.0000	0.594072
388.0000	0.595648
387.0000	0.596988
386.0000	0.598513
385.0000	0.599909
384.0000	0.601551
383.0000	0.603171
382.0000	0.604723
381.0000	0.606304
380.0000	0.607873
379.0000	0.609283
378.0000	0.610676
377.0000	0.61202
376.0000	0.613565
375.0000	0.614925
374.0000	0.616238
373.0000	0.617511
372.0000	0.619113
371.0000	0.620568
370.0000	0.621908
369.0000	0.622975
368.0000	0.624226
367.0000	0.625519
366.0000	0.626683
365.0000	0.627689
364.0000	0.628594
363.0000	0.629564
362.0000	0.63037
361.0000	0.631441
360.0000	0.632287
359.0000	0.633
358.0000	0.63357
357.0000	0.634317
356.0000	0.6349
355.0000	0.635657
354.0000	0.636194
353.0000	0.636754
352.0000	0.637178
351.0000	0.637707
350.0000	0.638028
