TITLE	Acid
DATA TYPE	ULTRAVIOLET SPECTRUM
ORIGIN	JASCO
OWNER	By Zero!
DATE	20/05/20
TIME	10:27:28
SPECTROMETER/DATA SYSTEM
RESOLUTION
DELTAX	-1
XUNITS	NANOMETERS
YUNITS	ABSORBANCE
FIRSTX	  900.0000
LASTX	  350.0000
NPOINTS	     551
FIRSTY	    -0.00544
MAXY	     1.97023
MINY	    -0.00720
XYDATA
lam(nm)		abs
900.0000	-0.00543767
899.0000	-0.00606752
898.0000	-0.00646498
897.0000	-0.00490469
896.0000	-0.00605406
895.0000	-0.00456392
894.0000	-0.00340443
893.0000	-0.00263252
892.0000	-0.00245299
891.0000	-0.00335924
890.0000	-0.00321259
889.0000	-0.00476608
888.0000	-0.00463189
887.0000	-0.0047266
886.0000	-0.0040655
885.0000	-0.00353147
884.0000	-0.00355777
883.0000	-0.00387742
882.0000	-0.00401538
881.0000	-0.00428191
880.0000	-0.0045701
879.0000	-0.00474097
878.0000	-0.00492105
877.0000	-0.00450819
876.0000	-0.00447084
875.0000	-0.00446467
874.0000	-0.004137
873.0000	-0.00468179
872.0000	-0.00516558
871.0000	-0.00523422
870.0000	-0.00504516
869.0000	-0.00497817
868.0000	-0.00456954
867.0000	-0.00464137
866.0000	-0.00457556
865.0000	-0.00483427
864.0000	-0.0051498
863.0000	-0.00520722
862.0000	-0.00505433
861.0000	-0.00477272
860.0000	-0.0048873
859.0000	-0.00505912
858.0000	-0.00497704
857.0000	-0.00499264
856.0000	-0.00504962
855.0000	-0.00514611
854.0000	-0.00522561
853.0000	-0.00504791
852.0000	-0.00512794
851.0000	-0.00512991
850.0000	-0.00504008
849.0000	-0.00507254
848.0000	-0.00508621
847.0000	-0.00513772
846.0000	-0.00516987
845.0000	-0.00517285
844.0000	-0.00511436
843.0000	-0.00516046
842.0000	-0.0052112
841.0000	-0.00519705
840.0000	-0.00512269
839.0000	-0.00503686
838.0000	-0.00490247
837.0000	-0.00490405
836.0000	-0.00502859
835.0000	-0.00510419
834.0000	-0.00529478
833.0000	-0.00522782
832.0000	-0.00517278
831.0000	-0.00513123
830.0000	-0.00514254
829.0000	-0.00499259
828.0000	-0.00509647
827.0000	-0.00499809
826.0000	-0.00519642
825.0000	-0.00513356
824.0000	-0.00523948
823.0000	-0.00528016
822.0000	-0.00536982
821.0000	-0.00540756
820.0000	-0.00533032
819.0000	-0.00525704
818.0000	-0.00530525
817.0000	-0.00533828
816.0000	-0.00533947
815.0000	-0.00538665
814.0000	-0.00520848
813.0000	-0.00534498
812.0000	-0.00540077
811.0000	-0.00552083
810.0000	-0.00552251
809.0000	-0.0055178
808.0000	-0.00549222
807.0000	-0.0053884
806.0000	-0.00544619
805.0000	-0.00553848
804.0000	-0.00562448
803.0000	-0.00574252
802.0000	-0.00568783
801.0000	-0.00559923
800.0000	-0.0055498
799.0000	-0.00565489
798.0000	-0.00558269
797.0000	-0.00559657
796.0000	-0.00561361
795.0000	-0.00565531
794.0000	-0.00576672
793.0000	-0.00566576
792.0000	-0.00572443
791.0000	-0.00563362
790.0000	-0.00565259
789.0000	-0.00559593
788.0000	-0.00575714
787.0000	-0.00583549
786.0000	-0.00582066
785.0000	-0.00580725
784.0000	-0.00572703
783.0000	-0.00577509
782.0000	-0.0057777
781.0000	-0.00584519
780.0000	-0.00581106
779.0000	-0.00586503
778.0000	-0.00587468
777.0000	-0.0058155
776.0000	-0.00585493
775.0000	-0.00597457
774.0000	-0.00594701
773.0000	-0.0059479
772.0000	-0.0058624
771.0000	-0.00574677
770.0000	-0.00577291
769.0000	-0.00575259
768.0000	-0.00583656
767.0000	-0.00592582
766.0000	-0.00587323
765.0000	-0.00586597
764.0000	-0.00573104
763.0000	-0.00572243
762.0000	-0.00571684
761.0000	-0.00578966
760.0000	-0.00589471
759.0000	-0.00593146
758.0000	-0.00591636
757.0000	-0.00584845
756.0000	-0.00591478
755.0000	-0.00598327
754.0000	-0.00604139
753.0000	-0.00609331
752.0000	-0.00600099
751.0000	-0.00601365
750.0000	-0.00590757
749.0000	-0.00595628
748.0000	-0.00589788
747.0000	-0.00593169
746.0000	-0.00600151
745.0000	-0.00604139
744.0000	-0.0061013
743.0000	-0.00604163
742.0000	-0.00608398
741.0000	-0.00606373
740.0000	-0.00602102
739.0000	-0.00598433
738.0000	-0.00604885
737.0000	-0.00601155
736.0000	-0.00602056
735.0000	-0.00600312
734.0000	-0.00606686
733.0000	-0.0061156
732.0000	-0.00615459
731.0000	-0.00620654
730.0000	-0.00622247
729.0000	-0.00625596
728.0000	-0.00620271
727.0000	-0.00616238
726.0000	-0.00625677
725.0000	-0.00624809
724.0000	-0.00629564
723.0000	-0.00623562
722.0000	-0.00623303
721.0000	-0.00622882
720.0000	-0.00623023
719.0000	-0.0061997
718.0000	-0.00619559
717.0000	-0.00625938
716.0000	-0.00633407
715.0000	-0.00631814
714.0000	-0.00633099
713.0000	-0.00636504
712.0000	-0.00639352
711.0000	-0.00643142
710.0000	-0.00645125
709.0000	-0.00646188
708.0000	-0.00646211
707.0000	-0.00648568
706.0000	-0.00648715
705.0000	-0.00654389
704.0000	-0.00659651
703.0000	-0.00660642
702.0000	-0.00660282
701.0000	-0.00664259
700.0000	-0.00663488
699.0000	-0.00668403
698.0000	-0.00668966
697.0000	-0.00667301
696.0000	-0.00670036
695.0000	-0.00670053
694.0000	-0.00672068
693.0000	-0.0067202
692.0000	-0.00674602
691.0000	-0.00670036
690.0000	-0.00669303
689.0000	-0.00664585
688.0000	-0.0066532
687.0000	-0.00660687
686.0000	-0.00658775
685.0000	-0.00662522
684.0000	-0.00661931
683.0000	-0.00660544
682.0000	-0.00651782
681.0000	-0.00650462
680.0000	-0.006525
679.0000	-0.0065431
678.0000	-0.00653869
677.0000	-0.00651257
676.0000	-0.00657585
675.0000	-0.00660407
674.0000	-0.00663339
673.0000	-0.00656464
672.0000	-0.00658302
671.0000	-0.00659696
670.0000	-0.00660225
669.0000	-0.00660283
668.0000	-0.00654781
667.0000	-0.00656931
666.0000	-0.00653246
665.0000	-0.00661617
664.0000	-0.00660939
663.0000	-0.00661575
662.0000	-0.00667221
661.0000	-0.00657676
660.0000	-0.0066252
659.0000	-0.00656914
658.0000	-0.00657026
657.0000	-0.0065282
656.0000	-0.00656354
655.0000	-0.00659735
654.0000	-0.00656592
653.0000	-0.00662843
652.0000	-0.00661658
651.0000	-0.00663605
650.0000	-0.00663177
649.0000	-0.00666325
648.0000	-0.00663813
647.0000	-0.0065555
646.0000	-0.00652224
645.0000	-0.00656736
644.0000	-0.00659961
643.0000	-0.0066424
642.0000	-0.00663531
641.0000	-0.00664814
640.0000	-0.00666043
639.0000	-0.00666863
638.0000	-0.00670109
637.0000	-0.00669918
636.0000	-0.00669036
635.0000	-0.00669435
634.0000	-0.00666925
633.0000	-0.00663912
632.0000	-0.00664475
631.0000	-0.00669386
630.0000	-0.00671565
629.0000	-0.00671619
628.0000	-0.00671055
627.0000	-0.00669674
626.0000	-0.00674609
625.0000	-0.00677224
624.0000	-0.00678561
623.0000	-0.00676765
622.0000	-0.00675505
621.0000	-0.00672844
620.0000	-0.00676117
619.0000	-0.00680794
618.0000	-0.00684697
617.0000	-0.00682822
616.0000	-0.00685155
615.0000	-0.00684605
614.0000	-0.00686668
613.0000	-0.0068393
612.0000	-0.00681752
611.0000	-0.00681046
610.0000	-0.00681923
609.0000	-0.0068346
608.0000	-0.00687057
607.0000	-0.00685959
606.0000	-0.0068625
605.0000	-0.0068595
604.0000	-0.00684917
603.0000	-0.0068824
602.0000	-0.00688566
601.0000	-0.00692328
600.0000	-0.00695387
599.0000	-0.00697659
598.0000	-0.00699302
597.0000	-0.00699386
596.0000	-0.0070127
595.0000	-0.00703502
594.0000	-0.0069995
593.0000	-0.00700017
592.0000	-0.00697038
591.0000	-0.00701498
590.0000	-0.00701686
589.0000	-0.00705493
588.0000	-0.00703519
587.0000	-0.0070111
586.0000	-0.00700582
585.0000	-0.00699366
584.0000	-0.00704574
583.0000	-0.00705514
582.0000	-0.00708908
581.0000	-0.00714047
580.0000	-0.00716822
579.0000	-0.00715484
578.0000	-0.00711852
577.0000	-0.00712716
576.0000	-0.00710182
575.0000	-0.0071525
574.0000	-0.00720097
573.0000	-0.00718605
572.0000	-0.00720455
571.0000	-0.0071608
570.0000	-0.00719917
569.0000	-0.00720476
568.0000	-0.00718163
567.0000	-0.00713698
566.0000	-0.00710076
565.0000	-0.00708905
564.0000	-0.00716194
563.0000	-0.00716657
562.0000	-0.00718957
561.0000	-0.00717102
560.0000	-0.00715261
559.0000	-0.00713058
558.0000	-0.00709986
557.0000	-0.00712593
556.0000	-0.00714173
555.0000	-0.00718332
554.0000	-0.00717028
553.0000	-0.0071907
552.0000	-0.00719343
551.0000	-0.00719998
550.0000	-0.00717138
549.0000	-0.00714124
548.0000	-0.00714117
547.0000	-0.0071333
546.0000	-0.00714523
545.0000	-0.00712221
544.0000	-0.00706775
543.0000	-0.0070312
542.0000	-0.00700719
541.0000	-0.00700182
540.0000	-0.00698422
539.0000	-0.00699759
538.0000	-0.00696584
537.0000	-0.00691486
536.0000	-0.00685203
535.0000	-0.00683514
534.0000	-0.00681724
533.0000	-0.00674767
532.0000	-0.00667609
531.0000	-0.00664452
530.0000	-0.00658511
529.0000	-0.00645642
528.0000	-0.00635639
527.0000	-0.00622338
526.0000	-0.00614209
525.0000	-0.00602429
524.0000	-0.00587281
523.0000	-0.00577847
522.0000	-0.00564457
521.0000	-0.00548767
520.0000	-0.00522661
519.0000	-0.00496662
518.0000	-0.00478334
517.0000	-0.00458331
516.0000	-0.00435859
515.0000	-0.00404877
514.0000	-0.00373318
513.0000	-0.00337512
512.0000	-0.00303221
511.0000	-0.00263168
510.0000	-0.00221695
509.0000	-0.00181224
508.0000	-0.00140597
507.0000	-0.000910289
506.0000	-0.000304378
505.0000	0.000200223
504.0000	0.00078431
503.0000	0.00141077
502.0000	0.00205865
501.0000	0.00283845
500.0000	0.00355202
499.0000	0.00438581
498.0000	0.00522006
497.0000	0.00614835
496.0000	0.0070927
495.0000	0.00811376
494.0000	0.00917101
493.0000	0.0102067
492.0000	0.0113349
491.0000	0.0125281
490.0000	0.0137584
489.0000	0.0150396
488.0000	0.0162985
487.0000	0.0176963
486.0000	0.0190581
485.0000	0.0205365
484.0000	0.0220539
483.0000	0.0236388
482.0000	0.0252257
481.0000	0.0268965
480.0000	0.0285358
479.0000	0.0302577
478.0000	0.0320292
477.0000	0.0338005
476.0000	0.0356357
475.0000	0.03752
474.0000	0.0394037
473.0000	0.0413215
472.0000	0.0432515
471.0000	0.0452117
470.0000	0.0472394
469.0000	0.0493318
468.0000	0.0514843
467.0000	0.0536891
466.0000	0.0558787
465.0000	0.0580948
464.0000	0.060374
463.0000	0.0627805
462.0000	0.0651833
461.0000	0.0676254
460.0000	0.0700964
459.0000	0.072661
458.0000	0.0753645
457.0000	0.0781597
456.0000	0.0810818
455.0000	0.0841246
454.0000	0.0872231
453.0000	0.0904173
452.0000	0.0938097
451.0000	0.0973355
450.0000	0.10107
449.0000	0.104918
448.0000	0.108863
447.0000	0.113039
446.0000	0.117418
445.0000	0.122047
444.0000	0.126898
443.0000	0.131998
442.0000	0.137367
441.0000	0.142932
440.0000	0.14873
439.0000	0.154635
438.0000	0.160921
437.0000	0.167457
436.0000	0.174321
435.0000	0.181473
434.0000	0.188851
433.0000	0.196534
432.0000	0.204423
431.0000	0.212606
430.0000	0.221061
429.0000	0.22972
428.0000	0.238552
427.0000	0.247655
426.0000	0.257033
425.0000	0.266676
424.0000	0.276479
423.0000	0.286293
422.0000	0.296634
421.0000	0.307198
420.0000	0.317571
419.0000	0.328482
418.0000	0.339158
417.0000	0.349834
416.0000	0.360512
415.0000	0.371465
414.0000	0.382531
413.0000	0.3935
412.0000	0.404436
411.0000	0.415498
410.0000	0.426576
409.0000	0.437632
408.0000	0.448769
407.0000	0.459724
406.0000	0.470774
405.0000	0.481875
404.0000	0.493005
403.0000	0.504288
402.0000	0.51551
401.0000	0.526735
400.0000	0.538065
399.0000	0.549403
398.0000	0.560682
397.0000	0.572041
396.0000	0.583395
395.0000	0.595016
394.0000	0.606473
393.0000	0.61811
392.0000	0.629972
391.0000	0.641956
390.0000	0.654081
389.0000	0.666075
388.0000	0.678231
387.0000	0.690251
386.0000	0.702329
385.0000	0.714391
384.0000	0.726558
383.0000	0.738758
382.0000	0.75112
381.0000	0.763503
380.0000	0.775956
379.0000	0.788573
378.0000	0.801111
377.0000	0.813996
376.0000	0.826879
375.0000	0.840432
374.0000	0.854533
373.0000	0.868989
372.0000	0.884758
371.0000	0.902153
370.0000	0.920344
369.0000	0.938429
368.0000	0.959924
367.0000	0.98216
366.0000	1.00661
365.0000	1.03375
364.0000	1.06367
363.0000	1.09663
362.0000	1.13245
361.0000	1.17234
360.0000	1.21633
359.0000	1.26518
358.0000	1.31854
357.0000	1.37789
356.0000	1.44198
355.0000	1.51342
354.0000	1.59031
353.0000	1.67515
352.0000	1.76596
351.0000	1.8648
350.0000	1.97023
